x,intensity
0,-10350117.000
1,-10268900.000
2,-10231717.000
3,-10238823.000
4,-10226470.000
5,-10196515.000
6,-10178022.000
7,-10170151.000
8,-10146918.000
9,-10114214.000
10,-10081512.000
11,-10053351.000
12,-10013736.000
13,-9969128.000
14,-9924329.000
15,-9884520.000
16,-9854503.000
17,-9834792.000
18,-9803497.000
19,-9763624.000
20,-9719656.000
21,-9669608.000
22,-9609897.000
23,-9540137.000
24,-9492905.000
25,-9468517.000
26,-9426341.000
27,-9362665.000
28,-9305636.000
29,-9259108.000
30,-9215977.000
31,-9177193.000
32,-9147049.000
33,-9121065.000
34,-9079849.000
35,-9028329.000
36,-9002793.000
37,-9011817.000
38,-9003049.000
39,-8984553.000
40,-8979689.000
41,-8989929.000
42,-9006056.000
43,-9024425.000
44,-9040809.000
45,-9057768.000
46,-9086184.000
47,-9131048.000
48,-9167080.000
49,-9201064.000
50,-9229096.000
51,-9255977.000
52,-9285865.000
53,-9319273.000
54,-9374761.000
55,-9453609.000
56,-9509993.000
57,-9541737.000
58,-9581096.000
59,-9627368.000
60,-9669224.000
61,-9710505.000
62,-9740136.000
63,-9756649.000
64,-9769897.000
65,-9777833.000
66,-9795177.000
67,-9821545.000
68,-9827433.000
69,-9809001.000
70,-9786217.000
71,-9761513.000
72,-9724265.000
73,-9673706.000
74,-9648298.000
75,-9655658.000
76,-9640617.000
77,-9607145.000
78,-9589225.000
79,-9587369.000
80,-9561321.000
81,-9512297.000
82,-9457321.000
83,-9393257.000
84,-9342889.000
85,-9304169.000
86,-9253098.000
87,-9186282.000
88,-9120682.000
89,-9054762.000
90,-8990698.000
91,-8929962.000
92,-8861866.000
93,-8788650.000
94,-8708202.000
95,-8622250.000
96,-8562474.000
97,-8524266.000
98,-8483498.000
99,-8440234.000
100,-8371434.500
101,-8277995.000
102,-8206187.000
103,-8156074.500
104,-8112939.000
105,-8074603.000
106,-8072427.000
107,-8109611.000
108,-8127978.500
109,-8130026.500
110,-8141610.500
111,-8161898.500
112,-8194090.500
113,-8230570.500
114,-8279210.500
115,-8340970.500
116,-8398186.000
117,-8446443.000
118,-8521259.000
119,-8618859.000
120,-8686059.000
121,-8722475.000
122,-8798379.000
123,-8920299.000
124,-9023083.000
125,-9106539.000
126,-9167338.000
127,-9205675.000
128,-9250795.000
129,-9300971.000
130,-9344363.000
131,-9380587.000
132,-9397931.000
133,-9398251.000
134,-9415147.000
135,-9449195.000
136,-9476267.000
137,-9496939.000
138,-9472363.000
139,-9406827.000
140,-9382763.000
141,-9396651.000
142,-9390764.000
143,-9362347.000
144,-9330411.000
145,-9290987.000
146,-9256491.000
147,-9226539.000
148,-9204651.000
149,-9186475.000
150,-9150187.000
151,-9093931.000
152,-9054444.000
153,-9030764.000
154,-8987692.000
155,-8922796.000
156,-8878060.000
157,-8849708.000
158,-8788524.000
159,-8695532.000
160,-8649452.000
161,-8652396.000
162,-8626796.000
163,-8565996.000
164,-8521068.000
165,-8486828.000
166,-8453612.000
167,-8426348.000
168,-8400044.000
169,-8372204.000
170,-8371436.500
171,-8395180.000
172,-8422572.000
173,-8457452.000
174,-8485036.000
175,-8509484.000
176,-8545580.000
177,-8586988.000
178,-8652268.000
179,-8742892.000
180,-8810860.000
181,-8851949.000
182,-8938797.000
183,-9073197.000
184,-9158765.000
185,-9200493.000
186,-9265773.000
187,-9353581.000
188,-9416365.000
189,-9456813.000
190,-9511213.000
191,-9579949.000
192,-9638765.000
193,-9687084.000
194,-9720685.000
195,-9737837.000
196,-9757293.000
197,-9778733.000
198,-9787885.000
199,-9786752.000
200,-9782656.000
201,-9777773.000
202,-9785517.000
203,-9802797.000
204,-9820845.000
205,-9840237.000
206,-9855469.000
207,-9866669.000
208,-9881453.000
209,-9899950.000
210,-9907950.000
211,-9905262.000
212,-9918445.000
213,-9942893.000
214,-9979821.000
215,-10030957.000
216,-10055213.000
217,-10054509.000
218,-10054125.000
219,-10048941.000
220,-10043628.000
221,-10037354.000
222,-10054189.000
223,-10089325.000
224,-10109037.000
225,-10113389.000
226,-10120173.000
227,-10129645.000
228,-10136174.000
229,-10139310.000
230,-10135214.000
231,-10123118.000
232,-10112302.000
233,-10103342.000
234,-10118509.000
235,-10152942.000
236,-10163758.000
237,-10148398.000
238,-10142190.000
239,-10148782.000
240,-10145389.000
241,-10126318.000
242,-10137710.000
243,-10173870.000
244,-10174318.000
245,-10137070.000
246,-10126638.000
247,-10141230.000
248,-10149102.000
249,-10148526.000
250,-10145838.000
251,-10142510.000
252,-10131886.000
253,-10110254.000
254,-10097838.000
255,-10093742.000
256,-10097646.000
257,-10106990.000
258,-10101870.000
259,-10087726.000
260,-10077294.000
261,-10073262.000
262,-10068462.000
263,-10058990.000
264,-10049070.000
265,-10037935.000
266,-10040687.000
267,-10060910.000
268,-10054254.000
269,-10022638.000
270,-10001454.000
271,-9989230.000
272,-9976174.000
273,-9965934.000
274,-9967214.000
275,-9984174.000
276,-9974126.000
277,-9940526.000
278,-9898094.000
279,-9852078.000
280,-9816814.000
281,-9798318.000
282,-9789486.000
283,-9790958.000
284,-9772078.000
285,-9737070.000
286,-9713454.000
287,-9699438.000
288,-9656238.000
289,-9587311.000
290,-9529711.000
291,-9479727.000
292,-9400495.000
293,-9292783.000
294,-9214959.000
295,-9167662.000
296,-9101870.000
297,-9018926.000
298,-8929262.000
299,-8832686.000
300,-8731950.000
301,-8623471.000
302,-8529134.000
303,-8444974.000
304,-8344238.500
305,-8222766.500
306,-8134894.000
307,-8074286.000
308,-8006958.000
309,-7934638.500
310,-7902062.500
311,-7905006.500
312,-7888366.500
313,-7853614.500
314,-7840622.500
315,-7849838.500
316,-7862894.500
317,-7878958.500
318,-7930222.500
319,-8016110.500
320,-8090926.500
321,-8159086.500
322,-8241326.500
323,-8330990.500
324,-8412527.000
325,-8483823.000
326,-8582190.000
327,-8703534.000
328,-8796269.000
329,-8857198.000
330,-8899887.000
331,-8929327.000
332,-8958255.000
333,-8984239.000
334,-9017839.000
335,-9055983.000
336,-9068847.000
337,-9057263.000
338,-9016367.000
339,-8948335.000
340,-8899951.000
341,-8872751.000
342,-8826159.000
343,-8755055.000
344,-8679791.000
345,-8602351.000
346,-8502319.000
347,-8382383.500
348,-8277935.000
349,-8186799.000
350,-8088623.000
351,-7983599.000
352,-7852975.000
353,-7694895.000
354,-7563375.000
355,-7457135.500
356,-7350575.500
357,-7242991.500
358,-7137263.500
359,-7034415.500
360,-6934639.500
361,-6830447.500
362,-6723951.500
363,-6615152.000
364,-6570160.000
365,-6590191.500
366,-6623983.500
367,-6672943.500
368,-6730031.500
369,-6799215.500
370,-6860463.500
371,-6916336.000
372,-7033647.500
373,-7215599.500
374,-7380591.500
375,-7529839.500
376,-7684271.500
377,-7836143.500
378,-7974831.500
379,-8098351.500
380,-8220783.500
381,-8343983.500
382,-8437231.000
383,-8505071.000
384,-8570415.000
385,-8638767.000
386,-8680624.000
387,-8700208.000
388,-8698736.000
389,-8674032.000
390,-8648367.000
391,-8620242.000
392,-8599315.000
393,-8588208.000
394,-8545200.000
395,-8474416.000
396,-8406320.000
397,-8335087.500
398,-8292783.500
399,-8277807.500
400,-8250031.500
401,-8211439.500
402,-8157680.000
403,-8091568.000
404,-7995311.500
405,-7874223.500
406,-7791855.500
407,-7758575.500
408,-7721071.500
409,-7676847.000
410,-7624239.500
411,-7559408.000
412,-7534064.000
413,-7552943.500
414,-7549295.500
415,-7515119.500
416,-7530927.500
417,-7593839.500
418,-7662831.500
419,-7734127.500
420,-7830127.500
421,-7952880.000
422,-8067248.000
423,-8179119.500
424,-8294000.000
425,-8413616.000
426,-8525680.000
427,-8632944.000
428,-8748016.000
429,-8870320.000
430,-8982128.000
431,-9083184.000
432,-9158255.000
433,-9208303.000
434,-9274224.000
435,-9353711.000
436,-9407343.000
437,-9435375.000
438,-9463407.000
439,-9492335.000
440,-9527343.000
441,-9573167.000
442,-9603951.000
443,-9619503.000
444,-9635631.000
445,-9649647.000
446,-9684271.000
447,-9740975.000
448,-9769903.000
449,-9772719.000
450,-9774319.000
451,-9776048.000
452,-9793072.000
453,-9822896.000
454,-9850224.000
455,-9873712.000
456,-9893547.000
457,-9906859.000
458,-9896432.000
459,-9869424.000
460,-9866800.000
461,-9889520.000
462,-9906032.000
463,-9913072.000
464,-9914735.000
465,-9904687.000
466,-9907055.000
467,-9924207.000
468,-9935023.000
469,-9938927.000
470,-9942831.000
471,-9948528.000
472,-9942831.000
473,-9927407.000
474,-9934767.000
475,-9960687.000
476,-9969071.000
477,-9963631.000
478,-9974448.000
479,-10007984.000
480,-10007983.000
481,-9975919.000
482,-9956527.000
483,-9951151.000
484,-9947632.000
485,-9946288.000
486,-9950639.000
487,-9960048.000
488,-9958256.000
489,-9942256.000
490,-9930224.000
491,-9919344.000
492,-9922480.000
493,-9937776.000
494,-9947376.000
495,-9948592.000
496,-9938992.000
497,-9915632.000
498,-9892400.000
499,-9870704.000
500,-9834480.000
501,-9784560.000
502,-9750192.000
503,-9729520.000
504,-9698095.000
505,-9655663.000
506,-9628720.000
507,-9613296.000
508,-9570031.000
509,-9493807.000
510,-9425392.000
511,-9366863.000
512,-9283984.000
513,-9178864.000
514,-9094000.000
515,-9030192.000
516,-8938352.000
517,-8825008.000
518,-8698288.000
519,-8559280.000
520,-8419376.000
521,-8282544.000
522,-8164912.000
523,-8061296.000
524,-7958896.000
525,-7867376.000
526,-7752304.000
527,-7621168.000
528,-7513776.000
529,-7425008.000
530,-7359536.500
531,-7319984.500
532,-7317424.000
533,-7355120.000
534,-7385072.000
535,-7410288.000
536,-7438064.000
537,-7467888.500
538,-7551024.000
539,-7687600.000
540,-7815536.000
541,-7930992.000
542,-8056368.000
543,-8196848.000
544,-8301424.000
545,-8373552.000
546,-8454512.000
547,-8542191.000
548,-8611311.000
549,-8658095.000
550,-8674032.000
551,-8660336.000
552,-8650032.000
553,-8643056.000
554,-8594479.000
555,-8505839.000
556,-8405359.000
557,-8292783.500
558,-8173871.500
559,-8051823.500
560,-7934063.500
561,-7824623.500
562,-7679215.500
563,-7496111.500
564,-7305519.500
565,-7112367.500
566,-6942447.500
567,-6792815.500
568,-6616368.000
569,-6412720.000
570,-6263472.000
571,-6159344.000
572,-6044976.000
573,-5922736.000
574,-5855792.000
575,-5845423.500
576,-5853743.500
577,-5881135.500
578,-5947568.000
579,-6050928.000
580,-6177200.000
581,-6321264.000
582,-6520560.000
583,-6776048.000
584,-6965936.000
585,-7092976.000
586,-7264176.000
587,-7484400.000
588,-7702127.500
589,-7914351.500
590,-8072752.000
591,-8180015.500
592,-8259759.500
593,-8312623.500
594,-8354991.500
595,-8384047.500
596,-8400560.000
597,-8402480.000
598,-8365423.500
599,-8287983.500
600,-8224944.000
601,-8176559.500
602,-8125295.500
603,-8070191.500
604,-7997231.500
605,-7908591.500
606,-7821296.000
607,-7739056.000
608,-7645295.500
609,-7542959.500
610,-7450800.000
611,-7366384.000
612,-7278639.500
613,-7177008.000
614,-7139695.500
615,-7157807.500
616,-7133935.500
617,-7068463.500
618,-7059312.000
619,-7113327.500
620,-7190959.500
621,-7295663.500
622,-7416240.000
623,-7547248.000
624,-7691887.500
625,-7844079.500
626,-7982255.500
627,-8107760.000
628,-8250288.000
629,-8408432.000
630,-8551600.000
631,-8683824.000
632,-8805040.000
633,-8920624.000
634,-9021040.000
635,-9104048.000
636,-9181231.000
637,-9256623.000
638,-9306223.000
639,-9329455.000
640,-9351535.000
641,-9374319.000
642,-9400751.000
643,-9430447.000
644,-9474863.000
645,-9531759.000
646,-9562863.000
647,-9564655.000
648,-9581487.000
649,-9609583.000
650,-9646127.000
651,-9695535.000
652,-9734319.000
653,-9768943.000
654,-9785391.000
655,-9782446.000
656,-9785007.000
657,-9788655.000
658,-9795695.000
659,-9799087.000
660,-9791343.000
661,-9770859.000
662,-9773163.000
663,-9796846.000
664,-9816239.000
665,-9832559.000
666,-9835951.000
667,-9832943.000
668,-9821039.000
669,-9801839.000
670,-9803503.000
671,-9821935.000
672,-9833518.000
673,-9838575.000
674,-9836655.000
675,-9826479.000
676,-9827951.000
677,-9836655.000
678,-9854831.000
679,-9885295.000
680,-9900463.000
681,-9900079.000
682,-9883822.000
683,-9853487.000
684,-9848238.000
685,-9869230.000
686,-9888239.000
687,-9905647.000
688,-9897327.000
689,-9861551.000
690,-9848430.000
691,-9852782.000
692,-9824622.000
693,-9766127.000
694,-9730415.000
695,-9720943.000
696,-9675951.000
697,-9598829.000
698,-9549294.000
699,-9524015.000
700,-9455342.000
701,-9343663.000
702,-9246895.000
703,-9157615.000
704,-9050159.000
705,-8922095.000
706,-8808431.000
707,-8708847.000
708,-8559407.000
709,-8363951.000
710,-8193135.000
711,-8047215.000
712,-7889967.000
713,-7722991.000
714,-7599407.000
715,-7517678.500
716,-7430574.500
717,-7339310.500
718,-7272367.000
719,-7228911.000
720,-7212975.000
721,-7223151.500
722,-7278319.500
723,-7379631.500
724,-7481839.000
725,-7590383.000
726,-7682671.000
727,-7766315.500
728,-7880234.500
729,-8026095.000
730,-8162223.000
731,-8279151.000
732,-8380398.500
733,-8465966.000
734,-8528303.000
735,-8565807.000
736,-8569391.000
737,-8538543.000
738,-8472751.000
739,-8372399.000
740,-8272943.000
741,-8174639.000
742,-8043886.500
743,-7878254.500
744,-7696239.000
745,-7498095.000
746,-7294895.000
747,-7084527.000
748,-6882223.000
749,-6686447.000
750,-6502767.000
751,-6333935.000
752,-6154415.000
753,-5970607.000
754,-5812783.000
755,-5676719.000
756,-5578159.000
757,-5516783.000
758,-5507631.000
759,-5545135.000
760,-5622895.000
761,-5741807.000
762,-5909039.000
763,-6133743.000
764,-6356910.500
765,-6568686.500
766,-6840110.500
767,-7166702.500
768,-7423726.500
769,-7611758.500
770,-7812718.500
771,-8024750.500
772,-8186926.500
773,-8298606.500
774,-8374766.500
775,-8414191.000
776,-8431023.000
777,-8420015.000
778,-8363566.500
779,-8257070.500
780,-8187502.500
781,-8155694.000
782,-8082990.000
783,-7966638.500
784,-7873262.500
785,-7803182.500
786,-7706094.500
787,-7591662.500
788,-7503470.500
789,-7439470.500
790,-7349934.500
791,-7232430.500
792,-7156462.500
793,-7125870.500
794,-7111726.500
795,-7121774.500
796,-7173614.500
797,-7267630.500
798,-7390766.500
799,-7546286.500
800,-7683310.500
801,-7803246.500
802,-7972334.500
803,-8193454.500
804,-8388718.000
805,-8560878.000
806,-8722542.000
807,-8875438.000
808,-9032301.000
809,-9188013.000
810,-9309166.000
811,-9390510.000
812,-9465518.000
813,-9531502.000
814,-9611310.000
815,-9706350.000
816,-9758510.000
817,-9773422.000
818,-9802606.000
819,-9851054.000
820,-9901358.000
821,-9956846.000
822,-10011950.000
823,-10060526.000
824,-10099310.000
825,-10123822.000
826,-10145326.000
827,-10167150.000
828,-10194734.000
829,-10223661.000
830,-10245293.000
831,-10256877.000
832,-10277805.000
833,-10305453.000
834,-10333678.000
835,-10354861.000
836,-10374061.000
837,-10389613.000
838,-10389678.000
839,-10376237.000
840,-10374445.000
841,-10386157.000
842,-10391277.000
843,-10386093.000
844,-10373357.000
845,-10348589.000
846,-10341677.000
847,-10351661.000
848,-10334637.000
849,-10290349.000
850,-10276205.000
851,-10289582.000
852,-10287789.000
853,-10270829.000
854,-10263726.000
855,-10262829.000
856,-10257005.000
857,-10244909.000
858,-10223469.000
859,-10195181.000
860,-10152101.000
861,-10092837.000
862,-10041261.000
863,-9993580.000
864,-9950124.000
865,-9905133.000
866,-9840173.000
867,-9750893.000
868,-9660974.000
869,-9571438.000
870,-9454318.000
871,-9306990.000
872,-9184749.000
873,-9089133.000
874,-8957101.000
875,-8782317.000
876,-8594605.000
877,-8402478.000
878,-8229997.500
879,-8085357.500
880,-7925997.000
881,-7748845.500
882,-7606765.500
883,-7495021.500
884,-7404590.000
885,-7329006.000
886,-7290286.000
887,-7284333.500
888,-7305197.500
889,-7352429.500
890,-7414957.500
891,-7490541.500
892,-7624429.500
893,-7821293.500
894,-7952749.500
895,-8026989.500
896,-8137773.500
897,-8288365.500
898,-8384173.500
899,-8424301.000
900,-8445869.000
901,-8449133.000
902,-8400685.000
903,-8306221.500
904,-8204269.000
905,-8100141.000
906,-7965485.500
907,-7801005.500
908,-7595629.500
909,-7350637.500
910,-7117293.500
911,-6898029.500
912,-6647533.000
913,-6366573.000
914,-6095149.000
915,-5838253.000
916,-5601645.000
917,-5385389.500
918,-5223597.500
919,-5123437.500
920,-5097901.500
921,-5149293.500
922,-5214893.500
923,-5289069.500
924,-5437933.500
925,-5664301.000
926,-5912109.000
927,-6186029.500
928,-6484333.500
929,-6826413.500
930,-7147821.000
931,-7442989.000
932,-7684013.000
933,-7865389.000
934,-8024685.000
935,-8160877.000
936,-8254317.000
937,-8304556.500
938,-8319084.500
939,-8297516.500
940,-8272236.500
941,-8235564.500
942,-8157932.500
943,-8031532.500
944,-7929260.500
945,-7847148.500
946,-7740461.000
947,-7610669.000
948,-7497581.000
949,-7406701.000
950,-7328877.000
951,-7265004.500
952,-7220972.500
953,-7190316.500
954,-7193005.000
955,-7223277.000
956,-7302253.000
957,-7430253.000
958,-7556013.000
959,-7676525.000
960,-7830637.000
961,-8015789.000
962,-8222700.500
963,-8452140.000
964,-8650476.000
965,-8811629.000
966,-8961645.000
967,-9101612.000
968,-9230764.000
969,-9349740.000
970,-9468332.000
971,-9583596.000
972,-9675244.000
973,-9747692.000
974,-9813100.000
975,-9871980.000
976,-9927466.000
977,-9981097.000
978,-10043052.000
979,-10116268.000
980,-10171244.000
981,-10206380.000
982,-10257772.000
983,-10325867.000
984,-10360107.000
985,-10361836.000
986,-10365868.000
987,-10370220.000
988,-10408556.000
989,-10481834.000
990,-10512683.000
991,-10504620.000
992,-10515435.000
993,-10542444.000
994,-10562732.000
995,-10576172.000
996,-10584300.000
997,-10582124.000
998,-10571372.000
999,-10556011.000
1000,-10551403.000
1001,-10557740.000
1002,-10561387.000
1003,-10568363.000
1004,-10573292.000
1005,-10576556.000
1006,-10572012.000
1007,-10562156.000
1008,-10545899.000
1009,-10529324.000
1010,-10519724.000
1011,-10523820.000
1012,-10495532.000
1013,-10437356.000
1014,-10396524.000
1015,-10371179.000
1016,-10340010.000
1017,-10299369.000
1018,-10230444.000
1019,-10127083.000
1020,-10031148.000
1021,-9939244.000
1022,-9846828.000
1023,-9753580.000
1024,-9627372.000
1025,-9458028.000
1026,-9286252.000
1027,-9120556.000
1028,-8964460.000
1029,-8817900.000
1030,-8654380.000
1031,-8481772.000
1032,-8308396.000
1033,-8127276.000
1034,-7980524.000
1035,-7869356.000
1036,-7805676.000
1037,-7794859.500
1038,-7782763.500
1039,-7767852.000
1040,-7784940.000
1041,-7833324.000
1042,-7892460.000
1043,-7963436.000
1044,-8054828.000
1045,-8168044.000
1046,-8303852.000
1047,-8461804.000
1048,-8570347.000
1049,-8629036.000
1050,-8642284.000
1051,-8613228.000
1052,-8582316.000
1053,-8554924.000
1054,-8464620.000
1055,-8314475.500
1056,-8122987.500
1057,-7886315.500
1058,-7635179.000
1059,-7369387.000
1060,-7092139.000
1061,-6810347.000
1062,-6529195.000
1063,-6251435.000
1064,-5977323.000
1065,-5705387.500
1066,-5492715.500
1067,-5338859.500
1068,-5252075.500
1069,-5236203.500
1070,-5241899.500
1071,-5264747.500
1072,-5401196.000
1073,-5653035.500
1074,-5953579.500
1075,-6291307.500
1076,-6647339.500
1077,-7025835.500
1078,-7364587.500
1079,-7659499.500
1080,-7922539.500
1081,-8138283.500
1082,-8340523.500
1083,-8530539.000
1084,-8633707.000
1085,-8644267.000
1086,-8636843.000
1087,-8612907.000
1088,-8526891.000
1089,-8381803.000
1090,-8279979.500
1091,-8227499.000
1092,-8143851.500
1093,-8028587.500
1094,-7920619.500
1095,-7812907.500
1096,-7719275.000
1097,-7639787.000
1098,-7583851.000
1099,-7560171.000
1100,-7551339.000
1101,-7559659.500
1102,-7604203.500
1103,-7688363.500
1104,-7824043.500
1105,-8006187.000
1106,-8178987.000
1107,-8340459.000
1108,-8521259.000
1109,-8719851.000
1110,-8920555.000
1111,-9125163.000
1112,-9293291.000
1113,-9430763.000
1114,-9566507.000
1115,-9705958.000
1116,-9817063.000
1117,-9903275.000
1118,-9988779.000
1119,-10072235.000
1120,-10133931.000
1121,-10179115.000
1122,-10216491.000
1123,-10244907.000
1124,-10292203.000
1125,-10358123.000
1126,-10405099.000
1127,-10435179.000
1128,-10469291.000
1129,-10506603.000
1130,-10540907.000
1131,-10573355.000
1132,-10615082.000
1133,-10661547.000
1134,-10676651.000
1135,-10658731.000
1136,-10667563.000
1137,-10704747.000
1138,-10729833.000
1139,-10741226.000
1140,-10745066.000
1141,-10737961.000
1142,-10735721.000
1143,-10746411.000
1144,-10748331.000
1145,-10741995.000
1146,-10748267.000
1147,-10766698.000
1148,-10767914.000
1149,-10748842.000
1150,-10746154.000
1151,-10764137.000
1152,-10762090.000
1153,-10741034.000
1154,-10709481.000
1155,-10666857.000
1156,-10618090.000
1157,-10558824.000
1158,-10491946.000
1159,-10415272.000
1160,-10323114.000
1161,-10216170.000
1162,-10128810.000
1163,-10060714.000
1164,-9962858.000
1165,-9839530.000
1166,-9691498.000
1167,-9518762.000
1168,-9344490.000
1169,-9176874.000
1170,-9012522.000
1171,-8850346.000
1172,-8692458.000
1173,-8538858.000
1174,-8408618.000
1175,-8308394.000
1176,-8209897.500
1177,-8117353.500
1178,-8066217.500
1179,-8061545.500
1180,-8072041.500
1181,-8098153.500
1182,-8181802.000
1183,-8317801.500
1184,-8429802.000
1185,-8515882.000
1186,-8598890.000
1187,-8679082.000
1188,-8723434.000
1189,-8734634.000
1190,-8734058.000
1191,-8722410.000
1192,-8634282.000
1193,-8473642.000
1194,-8271786.000
1195,-8028266.000
1196,-7802985.500
1197,-7590633.500
1198,-7344489.500
1199,-7059945.500
1200,-6801641.500
1201,-6559849.500
1202,-6309097.500
1203,-6041513.500
1204,-5860009.000
1205,-5757865.000
1206,-5693225.000
1207,-5671337.000
1208,-5718761.500
1209,-5841449.500
1210,-6037993.500
1211,-6301097.000
1212,-6573737.500
1213,-6850986.000
1214,-7150377.500
1215,-7484265.500
1216,-7791593.500
1217,-8072233.500
1218,-8336169.500
1219,-8586985.000
1220,-8728810.000
1221,-8763050.000
1222,-8811370.000
1223,-8875370.000
1224,-8850794.000
1225,-8737322.000
1226,-8655722.000
1227,-8610986.000
1228,-8549801.000
1229,-8466666.000
1230,-8412650.000
1231,-8383274.000
1232,-8348970.000
1233,-8304170.000
1234,-8253353.500
1235,-8189417.500
1236,-8183913.500
1237,-8237481.500
1238,-8301226.000
1239,-8380650.000
1240,-8519914.000
1241,-8714794.000
1242,-8898154.000
1243,-9067114.000
1244,-9238762.000
1245,-9412586.000
1246,-9584938.000
1247,-9751978.000
1248,-9901034.000
1249,-10030122.000
1250,-10142250.000
1251,-10238378.000
1252,-10321194.000
1253,-10390954.000
1254,-10457962.000
1255,-10519914.000
1256,-10582378.000
1257,-10642986.000
1258,-10706665.000
1259,-10769448.000
1260,-10800106.000
1261,-10800041.000
1262,-10825065.000
1263,-10874921.000
1264,-10916649.000
1265,-10945001.000
1266,-10971496.000
1267,-10992936.000
1268,-11009641.000
1269,-11020712.000
1270,-11035880.000
1271,-11053415.000
1272,-11073704.000
1273,-11101671.000
1274,-11111144.000
1275,-11102441.000
1276,-11088423.000
1277,-11067688.000
1278,-11050917.000
1279,-11051153.000
1280,NaN
